BE,CPS
89.94,4592.44
89.92,4563.65
89.9,4569.16
89.88,4616.91
89.86,4639.76
89.84,4611.9
89.82,4563.62
89.8,4606.98
89.78,4605.31
89.76,4629.03
89.74,4646.18
89.72,4625.24
89.7,4607
89.68,4590.52
89.66,4597.82
89.64,4619.09
89.62,4619.07
89.6,4625.23
89.58,4626.5
89.56,4614.16
89.54,4630.51
89.52,4626.03
89.5,4649.94
89.48,4640.19
89.46,4650.15
89.44,4653.1
89.42,4687.85
89.4,4649.94
89.38,4650.68
89.36,4649.14
89.34,4755.05
89.32,4701.12
89.3,4675.57
89.28,4718.84
89.26,4680.41
89.24,4683.97
89.22,4697.12
89.2,4726.51
89.18,4726.98
89.16,4760.73
89.14,4778.96
89.12,4820.28
89.1,4809.82
89.08,4818.48
89.06,4840.15
89.04,4824.62
89.02,4879.58
89,4888.07
88.98,4862.07
88.96,4934.45
88.94,4967.21
88.92,4984.68
88.9,5007.12
88.88,5019.07
88.86,5092.9
88.84,5099.14
88.82,5153.85
88.8,5209.59
88.78,5230.47
88.76,5274.36
88.74,5339.23
88.72,5385.68
88.7,5448.36
88.68,5475.64
88.66,5539.12
88.64,5598.94
88.62,5677.32
88.6,5681.98
88.58,5813.98
88.56,5887.71
88.54,5903.28
88.52,5990.92
88.5,6103.26
88.48,6182.61
88.46,6246.1
88.44,6330.19
88.42,6417.45
88.4,6466.74
88.38,6531
88.36,6684.58
88.34,6761.05
88.32,6857.09
88.3,6980.18
88.28,7048.07
88.26,7154.01
88.24,7299.43
88.22,7312.25
88.2,7410.77
88.18,7451.57
88.16,7618.98
88.14,7761.62
88.12,7854.07
88.1,7929.21
88.08,8010.55
88.06,8134.81
88.04,8287.23
88.02,8425.33
88,8625.08
87.98,8781.55
87.96,8904.36
87.94,9011.94
87.92,9164.76
87.9,9343.01
87.88,9404.62
87.86,9492.71
87.84,9686.12
87.82,9751.25
87.8,9893.44
87.78,9940.72
87.76,10074.1
87.74,10092
87.72,10097
87.7,10150.2
87.68,10161.9
87.66,10216.3
87.64,10209.8
87.62,10177.2
87.6,10098
87.58,10022.1
87.56,9926.54
87.54,9924.96
87.52,9820.25
87.5,9703.58
87.48,9606.08
87.46,9440.63
87.44,9326.64
87.42,9197.14
87.4,8939.76
87.38,8817.4
87.36,8599.58
87.34,8456.55
87.32,8289.6
87.3,8099.24
87.28,7925.02
87.26,7738.25
87.24,7559.5
87.22,7349.11
87.2,7265.91
87.18,7054.56
87.16,6858.88
87.14,6724.38
87.12,6591.55
87.1,6429.19
87.08,6282.55
87.06,6160.65
87.04,6040.48
87.02,5967.5
87,5863.27
86.98,5756.68
86.96,5687.55
86.94,5584.39
86.92,5499.75
86.9,5398.89
86.88,5348.59
86.86,5322.69
86.84,5191.64
86.82,5164.15
86.8,5118.55
86.78,5040.72
86.76,5012.98
86.74,4934.97
86.72,4937.7
86.7,4902.68
86.68,4895.43
86.66,4818.26
86.64,4788.7
86.62,4754.85
86.6,4737.59
86.58,4740.9
86.56,4721.37
86.54,4726.4
86.52,4677.85
86.5,4702.07
86.48,4647.54
86.46,4598.49
86.44,4610.98
86.42,4587.42
86.4,4583.99
86.38,4598.65
86.36,4553.95
86.34,4581.72
86.32,4550.76
86.3,4553.51
86.28,4490.64
86.26,4480.65
86.24,4475.99
86.22,4460.64
86.2,4477.35
86.18,4474.45
86.16,4450.93
86.14,4438.07
86.12,4428.15
86.1,4462.31
86.08,4448.66
86.06,4454.69
86.04,4456.73
86.02,4457.36
86,4430.96
85.98,4472.87
85.96,4432.73
85.94,4416.8
85.92,4427.95
85.9,4410.21
85.88,4414.12
85.86,4466.5
85.84,4461.96
85.82,4416.83
85.8,4408.74
85.78,4393.47
85.76,4420.02
85.74,4447.12
85.72,4468.09
85.7,4415.14
85.68,4426.45
85.66,4451.45
85.64,4447.25
85.62,4458.11
85.6,4523.36
85.58,4465.95
85.56,4492.5
85.54,4490.95
85.52,4494.58
85.5,4497.59
85.48,4528.61
85.46,4540.1
85.44,4560.52
85.42,4582.2
85.4,4634.27
85.38,4641.35
85.36,4651.21
85.34,4644.71
85.32,4713.73
85.3,4734.86
85.28,4766.49
85.26,4798.14
85.24,4886.08
85.22,4908.75
85.2,4946.89
85.18,5012.83
85.16,5070.65
85.14,5122.56
85.12,5146.8
85.1,5239.18
85.08,5320.62
85.06,5392.5
85.04,5468.98
85.02,5544.67
85,5634.62
84.98,5717.94
84.96,5872.8
84.94,5903.81
84.92,6052.31
84.9,6156.81
84.88,6254.27
84.86,6349.25
84.84,6537.63
84.82,6641.9
84.8,6721.26
84.78,6914.78
84.76,6990.8
84.74,7185.67
84.72,7283.29
84.7,7371.23
84.68,7540.75
84.66,7685.32
84.64,7872.65
84.62,8015.41
84.6,8115.32
84.58,8285.33
84.56,8477.42
84.54,8680
84.52,8808.98
84.5,8896.94
84.48,9053.85
84.46,9302.3
84.44,9503.03
84.42,9651.71
84.4,9813.8
84.38,10068.5
84.36,10287.6
84.34,10506.2
84.32,10719.6
84.3,10884.2
84.28,11170.6
84.26,11380.3
84.24,11683.9
84.22,11853.5
84.2,12157.6
84.18,12352.7
84.16,12483.2
84.14,12702.1
84.12,12849.1
84.1,13010.5
84.08,13123.3
84.06,13230.1
84.04,13224.6
84.02,13311.1
84,13336.4
83.98,13299.4
83.96,13253.6
83.94,13224.6
83.92,13170.2
83.9,13115.9
83.88,12982.1
83.86,12812.5
83.84,12679.5
83.82,12509.5
83.8,12311.8
83.78,12073.6
83.76,11844.3
83.74,11658.9
83.72,11368.4
83.7,11137.4
83.68,10826.3
83.66,10483.2
83.64,10133.1
83.62,9859.34
83.6,9645.27
83.58,9350.71
83.56,9039.03
83.54,8723.57
83.52,8425.23
83.5,8144.49
83.48,7895.27
83.46,7620.02
83.44,7322.58
83.42,7126.29
83.4,6903.62
83.38,6607.12
83.36,6413.87
83.34,6194.18
83.32,6062.04
83.3,5885.81
83.28,5729.02
83.26,5535.38
83.24,5402.71
83.22,5300.4
83.2,5196.94
83.18,5066.77
83.16,4987.68
83.14,4892.56
83.12,4806.02
83.1,4726.4
83.08,4666.89
83.06,4606.2
83.04,4560.73
83.02,4485.14
83,4456.69
82.98,4385.62
82.96,4351.93
82.94,4318.3
82.92,4259.57
82.9,4218.46
82.88,4170.55
82.86,4116.44
82.84,4153.21
82.82,4083.28
82.8,4068.12
82.78,3999.4
82.76,4005.76
82.74,4005.85
82.72,3938.59
82.7,3908.22
82.68,3908.15
82.66,3896.19
82.64,3840.12
82.62,3875.8
82.6,3841.35
82.58,3826.45
82.56,3773.73
82.54,3761.85
82.52,3746.06
82.5,3755.65
82.48,3739.68
82.46,3718.74
82.44,3721.84
82.42,3695.24
82.4,3655.12
82.38,3616
82.36,3639.59
82.34,3640.55
82.32,3654.41
82.3,3648.2
82.28,3603.88
82.26,3581.84
82.24,3570.35
82.22,3589.71
82.2,3603.53
82.18,3562.19
82.16,3574.68
82.14,3572.82
82.12,3554.38
82.1,3540.1
82.08,3541.22
82.06,3506.95
82.04,3503.89
82.02,3515.17
82,3499.21
81.98,3498.32
81.96,3482.61
81.94,3450.69
81.92,3482.69
81.9,3444.51
81.88,3434.39
81.86,3461.84
81.84,3420.15
81.82,3432.91
81.8,3416.93
81.78,3417.42
81.76,3426.51
81.74,3427.48
81.72,3386.68
81.7,3417.85
81.68,3382.9
81.66,3383.21
81.64,3421.1
81.62,3401.21
81.6,3342.55
81.58,3352.22
81.56,3328.5
81.54,3352.29
81.52,3332.44
81.5,3324.83
81.48,3335.83
